# R(A) 	 Gamma (MHz)
1.1303997785e+04
1.1406965251e+04
1.1509184042e+04
1.1610089863e+04
1.1655030792e+04
1.1705197286e+04
1.1724983582e+04
1.1783211531e+04
1.1817784582e+04
1.1862420198e+04
1.1917914372e+04
1.1932387126e+04
1.1987568715e+04
1.2020088623e+04
1.2061236408e+04
1.2117494578e+04
1.2124617455e+04
1.2186676174e+04
1.2222009381e+04
1.2253322206e+04
1.2307367961e+04
1.2328340605e+04
1.2382874718e+04
1.2413182934e+04
1.2448845478e+04
1.2511129509e+04
1.2512944224e+04
1.2573994855e+04
1.2611684049e+04
1.2638381970e+04
1.2695626193e+04
1.2713498738e+04
1.2764518893e+04
1.2800474564e+04
1.2831197844e+04
1.2887569305e+04
1.2900072819e+04
1.2955116079e+04
1.2990780083e+04
1.3017244144e+04
1.3078665533e+04
1.3086792120e+04
1.3140310370e+04
1.3180525629e+04
1.3203129371e+04
1.3260646394e+04
1.3277132095e+04
1.3325503794e+04
1.3363761764e+04
1.3389859086e+04
1.3444750926e+04
1.3460004183e+04
1.3510502272e+04
1.3545684601e+04
1.3572422374e+04
1.3630394204e+04
1.3638539582e+04
1.3692076514e+04
1.3727831696e+04
1.3751850311e+04
1.3811125510e+04
1.3818436540e+04
1.3870723848e+04
1.3907220508e+04
1.3930682563e+04
1.3986591750e+04
1.3998621416e+04
1.4048154196e+04
1.4082401027e+04
1.4108874828e+04
1.4161144237e+04
1.4174587974e+04
1.4224647208e+04
1.4254596268e+04
1.4284702048e+04
1.4335226537e+04
1.4346530993e+04
1.4399268229e+04
1.4424864111e+04
1.4457531307e+04
1.4507915501e+04
1.4515665187e+04
1.4571106110e+04
1.4593405489e+04
1.4627745164e+04
1.4676908481e+04
1.4684000043e+04
1.4739960826e+04
1.4759800753e+04
1.4795841488e+04
1.4841107688e+04
1.4852169352e+04
1.4906096953e+04
1.4923512669e+04
1.4961994198e+04
1.5002003112e+04
1.5018326430e+04
1.5069721882e+04
1.5084307995e+04
1.5126048475e+04
